Number of bands=8
Number of spectra=5
Ref Reflectance=95.00
Data type=0, reflectance in %
 Wavelength (nm),(598_142)-(698_266),(746_90)-(856_159),(992_354)-(1095_517),(1184_386)-(1250_544),(833_444)-(912_494)
470.00,0.02,0.04,0.39,0.05,1.65
560.00,10.27,8.81,13.54,10.88,17.03
670.00,2.51,2.14,3.38,2.83,3.70
720.00,35.20,33.79,43.79,37.30,47.00
780.00,69.43,70.05,88.10,74.79,89.30
840.00,75.65,76.77,92.30,81.60,93.88
900.00,76.09,72.88,90.80,77.76,93.58
970.00,72.61,74.88,91.87,78.42,92.32
